/////////////////////////////////////////////////////////////////////////////////
/// Profile Data Ascii Dump (XRD)                                             ///
/////////////////////////////////////////////////////////////////////////////////

  Group     : TPU
  Data      : Ti3AlC2_1250C_100MPa_5min
  File Name : Ti3AlC2_1250C_100MPa_5min.RAW

# Profile Datafile
          comment             = Ti3AlC2_1250C_100MPa_5min 
          date & time         = 04-30-20 12:36:31 

# Measurement Condition
    X-ray tube
          target              = Cu 
          voltage             = 40.0 (kV)
          current             = 30.0 (mA)
    Slits
          divergence slit     = 1.00000 (deg) 
          scatter slit        = 0.00000 (deg) 
          receiving slit      = 0.00000 (mm)  
    Scanning
          drive axis          = Theta-2Theta 
          scan range          =    5.000 -   90.013 
          scan mode           = ?????? 
          scan speed          =   5.0000 (deg/min) 
          sampling pitch      =   0.0143 (deg) 
          preset time         =  42.97 (sec) 

# Data      [ Total No. = 5946 ]
  <2Theta>   <   I   >
     5.0000      5675
     5.0143      5654
     5.0286      5612
     5.0429      5652
     5.0572      5678
     5.0715      5807
     5.0858      5801
     5.1001      5569
     5.1144      5782
     5.1287      5536
     5.1430      5598
     5.1573      5780
     5.1716      5734
     5.1859      5703
     5.2002      5758
     5.2145      5826
     5.2288      5686
     5.2431      5690
     5.2574      5758
     5.2717      5751
     5.2860      5725
     5.3003      5760
     5.3146      5678
     5.3289      5742
     5.3432      5745
     5.3575      5498
     5.3718      5386
     5.3861      5399
     5.4004      5549
     5.4147      5489
     5.4290      5340
     5.4433      5437
     5.4576      5506
     5.4719      5464
     5.4862      5506
     5.5005      5583
     5.5148      5594
     5.5291      5395
     5.5434      5530
     5.5577      5458
     5.5720      5528
     5.5863      5448
     5.6006      5463
     5.6149      5404
     5.6292      5537
     5.6435      5469
     5.6578      5471
     5.6721      5491
     5.6864      5623
     5.7007      5350
     5.7150      5205
     5.7293      5354
     5.7436      5296
     5.7579      5262
     5.7722      5304
     5.7865      5268
     5.8008      5349
     5.8151      5321
     5.8294      5322
     5.8437      5376
     5.8580      5371
     5.8723      5305
     5.8866      5180
     5.9009      5384
     5.9152      5346
     5.9295      5545
     5.9438      5499
     5.9581      5387
     5.9724      5351
     5.9867      5303
     6.0010      5210
     6.0153      5400
     6.0296      5525
     6.0439      5525
     6.0582      5138
     6.0725      5311
     6.0868      5233
     6.1011      5093
     6.1154      5213
     6.1297      5166
     6.1440      5179
     6.1583      5185
     6.1726      5230
     6.1869      5229
     6.2012      5281
     6.2155      5176
     6.2298      5228
     6.2441      5256
     6.2584      5290
     6.2727      5335
     6.2870      5203
     6.3013      5284
     6.3156      5091
     6.3299      5275
     6.3442      5248
     6.3585      5277
     6.3728      5246
     6.3871      5347
     6.4014      5347
     6.4157      5047
     6.4300      5049
     6.4443      5070
     6.4586      5096
     6.4729      5159
     6.4872      4938
     6.5015      5130
     6.5158      5013
     6.5301      4905
     6.5444      4972
     6.5587      5054
     6.5730      4976
     6.5873      5057
     6.6016      5041
     6.6159      5103
     6.6302      5055
     6.6445      5046
     6.6588      5232
     6.6731      5033
     6.6874      5144
     6.7017      5052
     6.7160      5029
     6.7303      5178
     6.7446      4992
     6.7589      4992
     6.7732      4832
     6.7875      5077
     6.8018      5114
     6.8161      4951
     6.8304      5013
     6.8447      4961
     6.8590      4902
     6.8733      5010
     6.8876      4973
     6.9019      4907
     6.9162      4986
     6.9305      4903
     6.9448      4960
     6.9591      4978
     6.9734      5071
     6.9877      5043
     7.0020      4900
     7.0163      4859
     7.0306      5028
     7.0449      5049
     7.0592      5042
     7.0735      5043
     7.0878      4935
     7.1021      4907
     7.1164      4907
     7.1307      4994
     7.1450      4863
     7.1593      4971
     7.1736      4896
     7.1879      4888
     7.2022      4955
     7.2165      4896
     7.2308      4837
     7.2451      4885
     7.2594      4808
     7.2737      4937
     7.2880      4797
     7.3023      4823
     7.3166      4832
     7.3309      4910
     7.3452      5020
     7.3595      4886
     7.3738      4906
     7.3881      5011
     7.4024      4896
     7.4167      4854
     7.4310      4918
     7.4453      5019
     7.4596      4872
     7.4739      4872
     7.4882      4715
     7.5025      4782
     7.5168      4799
     7.5311      4790
     7.5454      4868
     7.5597      4798
     7.5740      4814
     7.5883      4844
     7.6026      4972
     7.6169      4929
     7.6312      4799
     7.6455      4906
     7.6598      4880
     7.6741      4841
     7.6884      4889
     7.7027      4943
     7.7170      4798
     7.7313      5063
     7.7456      4840
     7.7599      4902
     7.7742      4901
     7.7885      4928
     7.8028      4896
     7.8171      4911
     7.8314      4911
     7.8457      4787
     7.8600      4714
     7.8743      4827
     7.8886      4906
     7.9029      4790
     7.9172      4753
     7.9315      4812
     7.9458      4833
     7.9601      4920
     7.9744      4889
     7.9887      4827
     8.0030      4771
     8.0173      4840
     8.0316      4890
     8.0459      4771
     8.0602      4806
     8.0745      4896
     8.0888      4913
     8.1031      4943
     8.1174      4949
     8.1317      4860
     8.1460      5042
     8.1603      5053
     8.1746      5025
     8.1889      5025
     8.2032      4679
     8.2175      4782
     8.2318      4884
     8.2461      4811
     8.2604      4896
     8.2747      4832
     8.2890      4948
     8.3033      4790
     8.3176      4852
     8.3319      4913
     8.3462      4980
     8.3605      4857
     8.3748      4916
     8.3891      4834
     8.4034      5063
     8.4177      5032
     8.4320      4991
     8.4463      4988
     8.4606      4897
     8.4749      4939
     8.4892      4974
     8.5035      4975
     8.5178      5100
     8.5321      5028
     8.5464      5028
     8.5607      4883
     8.5750      4904
     8.5893      4991
     8.6036      4890
     8.6179      5000
     8.6322      4904
     8.6465      4947
     8.6608      4973
     8.6751      4972
     8.6894      4926
     8.7037      4873
     8.7180      4962
     8.7323      4950
     8.7466      5040
     8.7609      5042
     8.7752      5130
     8.7895      5023
     8.8038      5012
     8.8181      5130
     8.8324      5135
     8.8467      5151
     8.8610      5255
     8.8753      5102
     8.8896      5164
     8.9039      5164
     8.9182      5066
     8.9325      4963
     8.9468      5105
     8.9611      5132
     8.9754      5272
     8.9897      5308
     9.0040      5222
     9.0183      5113
     9.0326      5219
     9.0469      5310
     9.0612      5307
     9.0755      5402
     9.0898      5380
     9.1041      5392
     9.1184      5304
     9.1327      5503
     9.1470      5437
     9.1613      5454
     9.1756      5484
     9.1899      5506
     9.2042      5621
     9.2185      5669
     9.2328      5682
     9.2471      5759
     9.2614      5759
     9.2757      5954
     9.2900      5950
     9.3043      5932
     9.3186      5905
     9.3329      5984
     9.3472      6027
     9.3615      6080
     9.3758      6144
     9.3901      6274
     9.4044      6419
     9.4187      6419
     9.4330      6782
     9.4473      6648
     9.4616      6837
     9.4759      6985
     9.4902      7256
     9.5045      7312
     9.5188      7480
     9.5331      7644
     9.5474      7937
     9.5617      7879
     9.5760      8350
     9.5903      8433
     9.6046      8663
     9.6189      8663
     9.6332      9283
     9.6475      9711
     9.6618     10247
     9.6761     10590
     9.6904     11462
     9.7047     12083
     9.7190     12745
     9.7333     13917
     9.7476     14978
     9.7619     15835
     9.7762     16468
     9.7905     16319
     9.8048     15267
     9.8191     13744
     9.8334     11709
     9.8477      9692
     9.8620      8089
     9.8763      7032
     9.8906      6503
     9.9049      6235
     9.9192      6054
     9.9335      5713
     9.9478      5674
     9.9621      5663
     9.9764      5663
     9.9907      5469
    10.0050      5301
    10.0193      5378
    10.0336      5257
    10.0479      5455
    10.0622      5301
    10.0765      5283
    10.0908      5322
    10.1051      5341
    10.1194      5349
    10.1337      5190
    10.1480      5193
    10.1623      5140
    10.1766      5146
    10.1909      5257
    10.2052      5236
    10.2195      5237
    10.2338      5112
    10.2481      5224
    10.2624      5194
    10.2767      5208
    10.2910      5165
    10.3053      5192
    10.3196      5237
    10.3339      5237
    10.3482      5082
    10.3625      5039
    10.3768      5062
    10.3911      5209
    10.4054      5223
    10.4197      5145
    10.4340      5125
    10.4483      5117
    10.4626      5025
    10.4769      5114
    10.4912      5093
    10.5055      5052
    10.5198      4984
    10.5341      5058
    10.5484      5107
    10.5627      4952
    10.5770      5120
    10.5913      5169
    10.6056      4991
    10.6199      5133
    10.6342      5259
    10.6485      5294
    10.6628      5165
    10.6771      4986
    10.6914      4986
    10.7057      5113
    10.7200      5060
    10.7343      5006
    10.7486      4992
    10.7629      5150
    10.7772      4944
    10.7915      5113
    10.8058      5212
    10.8201      5133
    10.8344      4975
    10.8487      5172
    10.8630      5060
    10.8773      5104
    10.8916      5033
    10.9059      5062
    10.9202      5057
    10.9345      5084
    10.9488      5171
    10.9631      5159
    10.9774      5177
    10.9917      5112
    11.0060      5262
    11.0203      4976
    11.0346      5132
    11.0489      5132
    11.0632      5027
    11.0775      5063
    11.0918      5007
    11.1061      5070
    11.1204      5017
    11.1347      5083
    11.1490      4898
    11.1633      5057
    11.1776      5066
    11.1919      4979
    11.2062      4926
    11.2205      4986
    11.2348      4962
    11.2491      4981
    11.2634      5004
    11.2777      5010
    11.2920      5152
    11.3063      5002
    11.3206      5209
    11.3349      5057
    11.3492      5055
    11.3635      5018
    11.3778      5056
    11.3921      5060
    11.4064      5060
    11.4207      5031
    11.4350      5041
    11.4493      5136
    11.4636      4925
    11.4779      5055
    11.4922      5014
    11.5065      4946
    11.5208      5010
    11.5351      4970
    11.5494      4841
    11.5637      5045
    11.5780      4889
    11.5923      5046
    11.6066      5218
    11.6209      4965
    11.6352      5063
    11.6495      5060
    11.6638      5134
    11.6781      4975
    11.6924      5090
    11.7067      5020
    11.7210      5035
    11.7353      5148
    11.7496      5107
    11.7639      5107
    11.7782      4975
    11.7925      5036
    11.8068      5079
    11.8211      4991
    11.8354      5060
    11.8497      5000
    11.8640      4964
    11.8783      5026
    11.8926      5052
    11.9069      5072
    11.9212      5008
    11.9355      4973
    11.9498      4974
    11.9641      5179
    11.9784      5087
    11.9927      5057
    12.0070      5086
    12.0213      5115
    12.0356      5065
    12.0499      5207
    12.0642      5062
    12.0785      5018
    12.0928      5084
    12.1071      5054
    12.1214      5054
    12.1357      5016
    12.1500      5046
    12.1643      4960
    12.1786      5052
    12.1929      5180
    12.2072      5049
    12.2215      5012
    12.2358      5038
    12.2501      4995
    12.2644      5038
    12.2787      4985
    12.2930      5033
    12.3073      4984
    12.3216      4925
    12.3359      5065
    12.3502      5063
    12.3645      5020
    12.3788      4948
    12.3931      4965
    12.4074      5049
    12.4217      5102
    12.4360      5076
    12.4503      5008
    12.4646      5022
    12.4789      5022
    12.4932      4963
    12.5075      5045
    12.5218      5017
    12.5361      5090
    12.5504      5117
    12.5647      5086
    12.5790      4836
    12.5933      4923
    12.6076      5041
    12.6219      5060
    12.6362      5150
    12.6505      4949
    12.6648      4958
    12.6791      4927
    12.6934      5051
    12.7077      5040
    12.7220      5059
    12.7363      5000
    12.7506      4951
    12.7649      5064
    12.7792      5049
    12.7935      5081
    12.8078      5105
    12.8221      5064
    12.8364      5064
    12.8507      4954
    12.8650      4937
    12.8793      5119
    12.8936      4953
    12.9079      5053
    12.9222      4848
    12.9365      5022
    12.9508      5094
    12.9651      5047
    12.9794      5077
    12.9937      4903
    13.0080      4906
    13.0223      5068
    13.0366      5068
    13.0509      4864
    13.0652      5042
    13.0795      4974
    13.0938      5056
    13.1081      5043
    13.1224      5030
    13.1367      5127
    13.1510      5173
    13.1653      5163
    13.1796      5143
    13.1939      5143
    13.2082      5030
    13.2225      5119
    13.2368      5177
    13.2511      4957
    13.2654      4966
    13.2797      5039
    13.2940      5081
    13.3083      4865
    13.3226      5062
    13.3369      4970
    13.3512      5003
    13.3655      5123
    13.3798      4939
    13.3941      4975
    13.4084      4883
    13.4227      4981
    13.4370      4963
    13.4513      4953
    13.4656      5117
    13.4799      5007
    13.4942      5018
    13.5085      4964
    13.5228      5069
    13.5371      5088
    13.5514      5088
    13.5657      4910
    13.5800      4945
    13.5943      4935
    13.6086      4861
    13.6229      4981
    13.6372      5010
    13.6515      5054
    13.6658      5088
    13.6801      5089
    13.6944      4955
    13.7087      5066
    13.7230      4945
    13.7373      5045
    13.7516      5015
    13.7659      4960
    13.7802      5120
    13.7945      5214
    13.8088      5057
    13.8231      4958
    13.8374      5069
    13.8517      5053
    13.8660      4966
    13.8803      4954
    13.8946      4895
    13.9089      4895
    13.9232      4973
    13.9375      4909
    13.9518      5012
    13.9661      5034
    13.9804      5001
    13.9947      4994
    14.0090      4920
    14.0233      5019
    14.0376      5116
    14.0519      5107
    14.0662      5132
    14.0805      4961
    14.0948      5074
    14.1091      4946
    14.1234      4946
    14.1377      4960
    14.1520      4908
    14.1663      5007
    14.1806      5134
    14.1949      5118
    14.2092      5117
    14.2235      5026
    14.2378      4933
    14.2521      4973
    14.2664      4973
    14.2807      4867
    14.2950      4866
    14.3093      4955
    14.3236      4859
    14.3379      4931
    14.3522      4888
    14.3665      5000
    14.3808      4924
    14.3951      5000
    14.4094      4928
    14.4237      4987
    14.4380      4934
    14.4523      4881
    14.4666      4969
    14.4809      4979
    14.4952      5001
    14.5095      5041
    14.5238      4986
    14.5381      5012
    14.5524      5053
    14.5667      5169
    14.5810      5034
    14.5953      5036
    14.6096      4994
    14.6239      4994
    14.6382      4873
    14.6525      4977
    14.6668      5027
    14.6811      4958
    14.6954      5038
    14.7097      4879
    14.7240      5039
    14.7383      5013
    14.7526      5002
    14.7669      4906
    14.7812      4954
    14.7955      4796
    14.8098      4878
    14.8241      4997
    14.8384      4929
    14.8527      4992
    14.8670      5010
    14.8813      4969
    14.8956      4881
    14.9099      4939
    14.9242      4902
    14.9385      5047
    14.9528      4930
    14.9671      4996
    14.9814      4996
    14.9957      4943
    15.0100      4780
    15.0243      4921
    15.0386      4996
    15.0529      4918
    15.0672      4896
    15.0815      4929
    15.0958      4883
    15.1101      4890
    15.1244      4870
    15.1387      4851
    15.1530      4940
    15.1673      4883
    15.1816      4891
    15.1959      4948
    15.2102      4914
    15.2245      4954
    15.2388      4935
    15.2531      5025
    15.2674      5020
    15.2817      5148
    15.2960      5027
    15.3103      5015
    15.3246      5000
    15.3389      5000
    15.3532      4806
    15.3675      4873
    15.3818      4928
    15.3961      4796
    15.4104      4845
    15.4247      4870
    15.4390      4927
    15.4533      4986
    15.4676      4798
    15.4819      4862
    15.4962      4993
    15.5105      4981
    15.5248      4902
    15.5391      4886
    15.5534      4923
    15.5677      4945
    15.5820      4958
    15.5963      4961
    15.6106      4908
    15.6249      4966
    15.6392      4873
    15.6535      4891
    15.6678      4806
    15.6821      4902
    15.6964      4902
    15.7107      4789
    15.7250      4855
    15.7393      4803
    15.7536      4914
    15.7679      4808
    15.7822      4828
    15.7965      4890
    15.8108      4824
    15.8251      4781
    15.8394      4892
    15.8537      4996
    15.8680      4839
    15.8823      4787
    15.8966      4742
    15.9109      4728
    15.9252      4984
    15.9395      4893
    15.9538      4963
    15.9681      4935
    15.9824      4742
    15.9967      4964
    16.0110      4929
    16.0253      4949
    16.0396      4936
    16.0539      4936
    16.0682      4868
    16.0825      4846
    16.0968      4880
    16.1111      4898
    16.1254      4745
    16.1397      4743
    16.1540      4822
    16.1683      4874
    16.1826      4825
    16.1969      4703
    16.2112      4701
    16.2255      4688
    16.2398      4781
    16.2541      4781
    16.2684      4826
    16.2827      4916
    16.2970      4806
    16.3113      4921
    16.3256      4846
    16.3399      4955
    16.3542      4814
    16.3685      4819
    16.3828      4743
    16.3971      4955
    16.4114      4955
    16.4257      4818
    16.4400      4831
    16.4543      4824
    16.4686      4627
    16.4829      4613
    16.4972      4808
    16.5115      4741
    16.5258      4854
    16.5401      4718
    16.5544      4868
    16.5687      4802
    16.5830      4894
    16.5973      4766
    16.6116      4784
    16.6259      4711
    16.6402      4711
    16.6545      4857
    16.6688      4754
    16.6831      4785
